Lithium Hexafluoroaluminate (Li3AlF6)	Al1F6Li3(cr,l)
T(K)	Cp	S	-[G-H(Tr)]/T	H-H(Tr)	delta-f H	delta-f G	log Kf
0	0.	0.	INFINITE	-32.146	-3370.866	-3370.866	INFINITE
100	70.982	38.225	333.657	-29.543	-3378.953	-3328.763	1738.767
200	156.222	115.960	205.121	-17.832	-3383.356	-3276.431	855.716
298.15	202.506	187.891	187.891	0.	-3383.601	-3223.790	564.795
300	203.133	189.145	187.895	0.375	-3383.581	-3222.799	561.139
400	229.869	251.549	196.222	22.131	-3381.793	-3169.443	413.887
500	248.111	304.904	212.753	46.075	-3388.377	-3115.708	325.496
600	262.295	351.440	232.072	71.621	-3384.937	-3061.477	266.525
700	274.052	392.779	252.131	98.453	-3380.383	-3007.913	224.453
748.000	279.073	411.132	261.751	111.737	BETA <--> GAMMA
748.000	279.073	413.929	261.751	113.829	TRANSITION
800	284.512	432.865	272.262	128.482	-3372.851	-2955.211	192.956
848.000	289.533	449.589	281.830	142.259	GAMMA <--> DELTA
848.000	289.533	451.069	281.830	143.515	TRANSITION
900	294.972	468.460	292.114	158.712	-3365.399	-2903.447	168.512
978.000	303.131	493.311	307.178	182.038	DELTA <--> EPSILON
978.000	303.131	493.739	307.178	182.456	TRANSITION
1000	305.432	500.508	311.357	189.150	-3368.604	-2851.735	148.959
1058.000	311.499	517.898	322.206	207.041	EPSILON <--> LIQUID
1058.000	359.824	599.363	322.206	293.232	TRANSITION
1100	359.824	613.371	333.058	308.344	-3272.388	-2803.892	133.146
1200	359.824	644.680	357.741	344.327	-3259.446	-2761.873	120.221
1300	359.824	673.481	380.935	380.309	-3246.563	-2720.931	109.328
1400	359.824	700.147	402.796	416.292	-3233.726	-2680.980	100.029
1500	359.824	724.972	423.456	452.274	-3220.923	-2641.945	92.001
1600	359.824	748.195	443.034	488.256	-3208.150	-2603.763	85.004
1700	359.824	770.009	461.633	524.239	-3631.111	-2544.851	78.194
1800	359.824	790.576	479.342	560.221	-3616.125	-2481.386	72.008
1900	359.824	810.030	496.239	596.204	-3601.178	-2418.753	66.496
2000	359.824	828.487	512.394	632.186	-3586.265	-2356.906	61.556
2100	359.824	846.043	527.867	668.168	-3571.378	-2295.805	57.105
2200	359.824	862.782	542.713	704.151	-3556.510	-2235.412	53.075
2300	359.824	878.777	556.980	740.133	-3541.653	-2175.694	49.412
2400	359.824	894.091	570.709	776.116	-3526.799	-2116.623	46.067
2500	359.824	908.779	583.940	812.098	-3511.942	-2058.171	43.003
2600	359.824	922.892	596.707	848.080	-3497.076	-2000.313	40.187
2700	359.824	936.472	609.041	884.063	-3482.194	-1943.028	37.590
2800	359.824	949.558	620.970	920.045	-3761.194	-1885.327	35.171
2900	359.824	962.184	632.520	956.028	-3745.173	-1818.614	32.757
3000	359.824	974.383	643.713	992.010	-3729.127	-1752.455	30.513
