Beryllium Nitride (Be3N2)	Be3N2(l)
T(K)	Cp	S	-[G-H(Tr)]/T	H-H(Tr)	delta-f H	delta-f G	log Kf
0														
100														
200														
298.15	133.888	39.457	39.457	0.	-486.979	-433.172	75.890
300	133.888	40.285	39.459	0.248	-486.877	-432.838	75.364
400	133.888	78.802	44.711	13.636	-481.931	-415.600	54.272
500	133.888	108.678	54.628	27.025	-477.790	-399.509	41.736
600	133.888	133.089	65.732	40.414	-474.185	-384.199	33.447
700	133.888	153.728	76.867	53.803	-471.014	-369.457	27.569
800	133.888	171.606	87.617	67.192	-468.225	-355.144	23.189
900	133.888	187.376	97.842	80.580	-465.790	-341.159	19.800
1000	133.888	201.482	107.513	93.969	-463.691	-327.426	17.103
1100	133.888	214.243	116.645	107.358	-461.913	-313.889	14.905
1200	133.888	225.893	125.271	120.747	-460.447	-300.499	13.080
1300	133.888	236.610	133.429	134.136	-459.287	-287.219	11.541
1400	133.888	246.532	141.157	147.524	-458.429	-274.017	10.224
1500	133.888	255.769	148.494	160.913	-457.870	-260.866	9.084
1600	133.888	264.410	155.471	174.302	-501.217	-246.166	8.036
1700	133.888	272.527	162.121	187.691	-500.048	-230.261	7.075
1800	133.888	280.180	168.469	201.080	-498.967	-214.423	6.222
1900	133.888	287.419	174.541	214.468	-497.972	-198.643	5.461
2000	133.888	294.287	180.358	227.857	-497.060	-182.913	4.777
2100	133.888	300.819	185.940	241.246	-496.228	-167.226	4.160
2200	133.888	307.047	191.304	254.635	-495.476	-151.577	3.599
2300	133.888	312.999	196.467	268.024	-494.802	-135.961	3.088
2400	133.888	318.697	201.442	281.412	-494.204	-120.372	2.620
2473.000	133.888	322.709	204.963	291.186	CRYSTAL <--> LIQUID
2500	133.888	324.163	206.242	294.801	493.682  104.807 2.190
2600	133.888	329.414	210.879	308.190	-493.235	-89.261	1.793
2700	133.888	334.467	215.364	321.579	-492.861	-73.731	1.426
2800	133.888	339.336	219.705	334.968	-1365.432	-39.545	0.738
2900	133.888	344.034	223.911	348.356	-1362.013	7.747	-0.140
3000	133.888	348.573	227.992	361.745	-1358.617	54.923	-0.956
3100	133.888	352.964	231.953	375.134	-1355.246	101.985	-1.718
3200	133.888	357.214	235.801	388.523	-1351.905	148.939	-2.431
3300	133.888	361.334	239.543	401.912	-1348.597	195.789	-3.099
3400	133.888	365.331	243.184	415.300	-1345.327	242.539	-3.726
3500	133.888	369.212	246.730	428.689	-1342.101	289.194	-4.316
3600	133.888	372.984	250.185	442.078	-1338.923	335.758	-4.872
3700	133.888	376.652	253.553	455.467	-1335.801	382.234	-5.396
3800	133.888	380.223	256.840	468.856	-1332.738	428.626	-5.892
3900	133.888	383.701	260.048	482.244	-1329.743	474.938	-6.361
4000	133.888	387.091	263.182	495.633	-1326.820	521.175	-6.806
