Strontium Hydroxide (Sr(OH)2)	H2O2Sr1(l)
T(K)	Cp	S	-[G-H(Tr)]/T	H-H(Tr)	delta-f H	delta-f G	log Kf
0														
100														
200														
298.15	74.894	108.739	108.739	0.	-957.304	-872.993	152.945
300	75.145	109.203	108.740	0.139	-957.323	-872.470	151.910
400	88.450	132.640	111.846	8.318	-957.750	-844.090	110.227
500	101.755	153.807	118.151	17.828	-957.049	-815.732	85.219
520.000	104.392	157.850	119.600	19.890	GLASS <--> LIQUID
520.000	157.737	157.850	119.600	19.890	TRANSITION
600	157.737	180.422	126.241	32.509	-951.387	-787.914	68.594
700	157.737	204.737	135.762	48.282	-944.839	-761.189	56.801
783.150	157.737	222.442	144.043	61.398	CRYSTAL <--> LIQUID
800	157.737	225.800	145.730	64.056	938.495  735.388 48.016
900	157.737	244.379	155.679	79.830	-932.976	-710.299	41.225
1000	157.737	260.998	165.395	95.603	-926.701	-685.895	35.827
1100	157.737	276.032	174.780	111.377	-928.412	-661.749	31.424
1200	157.737	289.757	183.798	127.151	-923.211	-637.737	27.760
1300	157.737	302.382	192.441	142.924	-918.088	-614.156	24.677
1400	157.737	314.072	200.716	158.698	-913.038	-590.966	22.049
1500	157.737	324.955	208.640	174.472	-908.060	-568.135	19.784
1600	157.737	335.135	216.231	190.245	-903.151	-545.634	17.813
1700	157.737	344.697	223.510	206.019	-1035.223	-522.258	16.047
1800	157.737	353.713	230.495	221.793	-1028.585	-492.276	14.285
1900	157.737	362.242	237.207	237.566	-1022.015	-462.660	12.719
2000	157.737	370.333	243.663	253.340	-1015.513	-433.389	11.319
