Titanium Oxide (Ti3O5)	O5Ti3(l)
T(K)	Cp	S	-[G-H(Tr)]/T	H-H(Tr)	delta-f H	delta-f G	log Kf
0														
100														
200														
298.15	173.962	232.446	232.446	0.000	-2289.059	-2177.939	381.566
300	174.054	233.522	232.449	0.322	-2289.013	-2177.250	379.093
400	179.075	284.282	239.336	17.978	-2286.625	-2140.359	279.502
500	184.096	324.781	252.507	36.137	-2284.335	-2104.058	219.809
600	189.117	358.789	267.460	54.798	-2282.050	-2068.217	180.054
700	194.138	388.319	282.661	73.960	-2279.687	-2032.764	151.687
800	199.158	414.570	297.539	93.625	-2277.139	-1997.660	130.434
900	204.179	438.318	311.882	113.792	-2274.459	-1962.886	113.923
1000	209.200	460.090	325.629	134.461	-2271.808	-1928.410	100.730
1100	214.221	480.264	338.781	155.632	-2269.355	-1894.191	89.948
1200	219.242	499.119	351.365	177.305	-2279.038	-1859.826	80.956
1300	224.262	516.866	363.420	199.480	-2274.762	-1825.064	73.332
1400	229.283	533.669	374.985	222.158	-2270.295	-1790.638	66.810
1400.000	229.283	533.669	374.985	222.158	GLASS <--> LIQUID
1400.000	267.776	533.669	374.985	222.158	TRANSITION
1500	267.776	552.144	386.187	248.935	-2262.071	-1756.666	61.173
1600	267.776	569.426	397.105	275.713	-2254.226	-1723.230	56.258
1700	267.776	585.660	407.724	302.490	-2246.795	-1690.273	51.936
1800	267.776	600.965	418.039	329.268	-2239.818	-1657.741	48.106
1900	267.776	615.443	428.051	356.046	-2233.333	-1625.582	44.690
2000	267.776	629.178	437.767	382.823	-2271.438	-1592.390	41.589
2050.000	267.776	635.790	442.516	396.212	BETA <--> LIQUID
2100	267.776	642.243	447.195	409.601	2268.296  1558.516 38.766
2200	267.776	654.700	456.346	436.378	-2265.210	-1524.788	36.203
2300	267.776	666.603	465.231	463.156	-2262.180	-1491.201	33.866
2400	267.776	678.000	473.861	489.934	-2259.206	-1457.745	31.727
2500	267.776	688.931	482.246	516.711	-2256.287	-1424.411	29.761
2600	267.776	699.433	490.399	543.489	-2253.421	-1391.193	27.949
2700	267.776	709.539	498.329	570.266	-2250.608	-1358.083	26.274
2800	267.776	719.278	506.048	597.044	-2247.846	-1325.077	24.720
2900	267.776	728.674	513.563	623.822	-2245.133	-1292.170	23.275
3000	267.776	737.752	520.886	650.599	-2242.470	-1259.354	21.927
3100	267.776	746.533	528.024	677.377	-2239.852	-1226.626	20.669
3200	267.776	755.034	534.986	704.154	-2237.280	-1193.984	19.490
3300	267.776	763.274	541.779	730.932	-2234.751	-1161.421	18.384
3400	267.776	771.268	548.412	757.710	-2232.264	-1128.932	17.344
3500	267.776	779.030	554.891	784.487	-2229.818	-1096.518	16.365
3600	267.776	786.574	561.222	811.265	-2227.409	-1064.171	15.441
3700	267.776	793.910	567.412	838.042	-3452.333	-1008.528	14.238
3800	267.776	801.051	573.467	864.820	-3446.295	-942.558	12.956
3900	267.776	808.007	579.392	891.598	-3440.457	-876.746	11.743
4000	267.776	814.787	585.193	918.375	-3434.815	-811.083	10.592
